Frequency (Hz) - Plot 0	Amplitude (V) - Plot 0	
1000	4.72784	
1000	4.72769	
1100	4.72264	
1100	4.72261	
1200	4.71668	
1300	4.71069	
1300	4.71086	
1300	4.71069	
1400	4.70416	
1500	4.69732	
1600	4.69028	
1700	4.68254	
1700	4.68255	
1800	4.67442	
1900	4.66647	
1900	4.66653	
2000	4.65755	
2100	4.64849	
2100	4.64864	
2200	4.63926	
2200	4.63918	
2300	4.62961	
2400	4.61974	
2400	4.61963	
2500	4.60978	
2600	4.59929	
2600	4.59924	
2700	4.58822	
2800	4.57729	
2800	4.57733	
2900	4.56578	
2900	4.56609	
3000	4.55438	
3100	4.54229	
3100	4.54253	
3200	4.53042	
3300	4.51804	
3300	4.51824	
3400	4.50549	
3500	4.49277	
3500	4.49291	
3600	4.47978	
3700	4.46663	
3700	4.46654	
3800	4.45314	
3900	4.43948	
3900	4.43973	
4000	4.42581	
4100	4.41169	
4100	4.41179	
4100	4.41174	
4300	4.38345	
4300	4.38361	
4400	4.369	
4400	4.36911	
4500	4.35434	
4600	4.33976	
4600	4.33964	
4700	4.32478	
4800	4.30997	
4800	4.30987	
4900	4.29481	
5000	4.27961	
5000	4.27944	
5100	4.26409	
5200	4.24858	
5200	4.24856	
5300	4.23311	
5300	4.23303	
5400	4.21732	
5500	4.20146	
5500	4.20144	
5600	4.18562	
5700	4.16946	
5700	4.1697	
5800	4.15367	
5800	4.15348	
5900	4.1375	
6000	4.12116	
6000	4.12129	
6100	4.10485	
6200	4.08873	
6200	4.08879	
6300	4.07233	
6400	4.05596	
6400	4.05612	
6500	4.03967	
6600	4.02322	
6600	4.02333	
6700	4.00677	
6700	4.00676	
6800	3.99019	
6900	3.97349	
6900	3.97355	
7000	3.95718	
7100	3.94052	
7100	3.9406	
7200	3.92412	
7300	3.90729	
7300	3.90732	
7400	3.89078	
7500	3.87414	
7500	3.87422	
7600	3.85767	
7700	3.84107	
7700	3.84111	
7800	3.82456	
7900	3.80803	
7900	3.80811	
8000	3.79139	
8100	3.77504	
8100	3.77514	
8200	3.75869	
8300	3.74241	
8300	3.74225	
8400	3.7259	
8400	3.72579	
8500	3.70967	
8600	3.69341	
8600	3.69334	
8700	3.67717	
8800	3.66099	
8800	3.66102	
8900	3.64481	
9000	3.62878	
9000	3.62879	
9100	3.6129	
9200	3.59683	
9200	3.59683	
9300	3.58116	
9400	3.56527	
9400	3.56536	
9500	3.54951	
9600	3.53372	
9600	3.53398	
9700	3.51827	
9800	3.50269	
9800	3.50289	
9900	3.48742	
10000	3.47207	
10000	3.47197	
10100	3.45671	
10200	3.44161	
10200	3.44166	
10300	3.42651	
10400	3.4116	
10400	3.41158	
10500	3.39658	
10600	3.38171	
10600	3.38174	
10700	3.36708	
10700	3.3671	
10800	3.35235	
10900	3.33761	
10900	3.33777	
11000	3.3232	
11100	3.30869	
11100	3.3089	
11200	3.2945	
11300	3.28025	
11300	3.2803	
11400	3.2661	
11500	3.25212	
11500	3.25219	
11600	3.23813	
11700	3.22425	
11700	3.22432	
11800	3.21052	
11900	3.19684	
11900	3.19674	
12000	3.18318	
12000	3.18327	
12100	3.16979	
12200	3.15629	
12200	3.15639	
12300	3.14306	
12400	3.12972	
12400	3.12973	
12500	3.11641	
12600	3.10346	
12600	3.10353	
12700	3.09043	
12800	3.07746	
12800	3.07746	
12900	3.06472	
13000	3.05189	
13000	3.05183	
13100	3.03913	
13200	3.02667	
13200	3.02664	
13300	3.01399	
13300	3.01409	
13400	3.00147	
13500	2.98921	
13600	2.97703	
13600	2.97699	
13700	2.96486	
13700	2.96465	
13800	2.9527	
13900	2.94064	
14000	2.92872	
14000	2.92873	
14100	2.91679	
14200	2.90495	
14200	2.90501	
14300	2.89309	
14400	2.88144	
14400	2.88156	
14500	2.86994	
14600	2.85841	
14600	2.85848	
14700	2.84688	
14800	2.83556	
14800	2.83555	
14900	2.82426	
14900	2.82421	
15000	2.81296	
15100	2.8018	
15100	2.80172	
15200	2.79073	
15300	2.77978	
15300	2.77974	
15400	2.76861	
15500	2.75784	
15500	2.75784	
15600	2.74687	
15700	2.73618	
15700	2.73612	
15800	2.72555	
15900	2.71488	
15900	2.71496	
16000	2.70418	
16100	2.6938	
16100	2.69377	
16200	2.68339	
16300	2.67303	
16300	2.67303	
16400	2.66262	
16500	2.65237	
16500	2.65232	
16600	2.64221	
16700	2.63203	
16700	2.63221	
16800	2.62206	
16900	2.61202	
16900	2.61216	
17000	2.60207	
17100	2.5923	
17100	2.59227	
17200	2.5825	
17300	2.57264	
17300	2.57271	
17400	2.56297	
17400	2.563	
17500	2.55343	
17600	2.54389	
17600	2.54389	
17700	2.53444	
17800	2.52482	
17800	2.52503	
17900	2.5156	
18000	2.50622	
18000	2.50628	
18100	2.49688	
18200	2.48772	
18200	2.48768	
18300	2.47846	
18400	2.46941	
18400	2.4694	
18500	2.46031	
18600	2.45141	
18600	2.45134	
18700	2.44246	
18700	2.4425	
18800	2.43357	
18900	2.42469	
18900	2.42479	
19000	2.41598	
19100	2.40734	
19100	2.40736	
19200	2.39865	
19300	2.38998	
19300	2.39003	
19400	2.38147	
19400	2.38158	
19500	2.37301	
19600	2.36448	
19600	2.3645	
19700	2.35601	
19800	2.34779	
19800	2.34783	
19833	2.32983	
20000	2.33108	
20000	2.33114	
20100	2.3229	
20100	2.32295	
20200	2.31479	
20300	2.30667	
20300	2.3068	
20400	2.29866	
20500	2.29067	
20500	2.29068	
20600	2.28267	
20700	2.27479	
20700	2.2746	
20800	2.26679	
20800	2.26684	
20900	2.25916	
21000	2.25137	
21000	2.25138	
21100	2.24353	
21100	2.24364	
21200	2.23599	
21300	2.22826	
21400	2.22067	
21400	2.22062	
21500	2.21302	
21600	2.2056	
21600	2.20562	
21700	2.19816	
21700	2.19817	
21800	2.1907	
21900	2.18333	
22000	2.17607	
22000	2.1761	
22100	2.16882	
22200	2.16157	
22200	2.16157	
22300	2.1543	
22400	2.14721	
22400	2.14726	
22500	2.14012	
22500	2.13999	
22600	2.13293	
22700	2.12586	
22700	2.12593	
22800	2.11903	
22900	2.11206	
22900	2.11205	
23000	2.10515	
23100	2.09843	
23100	2.09827	
23200	2.0914	
23200	2.09141	
23300	2.08464	
23400	2.07793	
23400	2.07796	
23500	2.07127	
23600	2.06458	
23600	2.06453	
23700	2.05788	
23800	2.05128	
23800	2.05125	
23900	2.04477	
24000	2.03826	
24000	2.03821	
24100	2.03171	
24200	2.02528	
24200	2.02531	
24300	2.0189	
24300	2.01888	
24400	2.01254	
24500	2.00619	
24500	2.00619	
24600	1.99994	
24700	1.99373	
24700	1.99374	
24800	1.98746	
24900	1.98126	
24900	1.9813	
25000	1.97527	
25100	1.9691	
25100	1.96907	
25200	1.96301	
25200	1.96293	
25300	1.95693	
25400	1.95093	
25400	1.95094	
25500	1.94494	
25600	1.939	
25600	1.93901	
25700	1.93313	
25800	1.9272	
25800	1.92727	
25900	1.9213	
26000	1.91556	
26099	1.91015	
26100	1.90987	
26200	1.90409	
26300	1.89848	
26300	1.89842	
26400	1.89268	
26500	1.88699	
26500	1.88701	
26600	1.88142	
26600	1.88143	
26600	1.88139	
26800	1.87027	
26800	1.87031	
26900	1.86477	
26951	1.84859	
27000	1.85931	
27100	1.85382	
27100	1.85378	
27200	1.8484	
27300	1.84299	
27300	1.84293	
27400	1.83755	
27500	1.83217	
27500	1.83227	
27600	1.82695	
27700	1.82161	
27700	1.82171	
27800	1.81628	
27800	1.81635	
27900	1.81108	
28000	1.8059	
28000	1.80596	
28100	1.80074	
28200	1.79558	
28300	1.7904	
28300	1.79037	
28400	1.78526	
28500	1.78019	
28500	1.78026	
28600	1.77524	
28700	1.77027	
28700	1.77023	
28800	1.7652	
28800	1.76526	
28900	1.76026	
29000	1.75537	
29000	1.75533	
29100	1.75047	
29200	1.74561	
29200	1.74556	
29300	1.74075	
29400	1.73584	
29400	1.7359	
29500	1.73096	
29600	1.72621	
29600	1.72625	
29700	1.72153	
29700	1.72155	
29800	1.71676	
29900	1.71206	
29900	1.71206	
30000	1.70738	
30100	1.70265	
30200	1.6981	
30200	1.69812	
30300	1.69347	
30400	1.68894	
30400	1.68894	
30500	1.68436	
30600	1.67984	
30600	1.67986	
30700	1.67534	
30700	1.67527	
30800	1.67086	
30900	1.66639	
30900	1.66644	
31000	1.66185	
31100	1.65743	
31100	1.65755	
31200	1.65314	
31300	1.64868	
31300	1.64869	
31400	1.64436	
31500	1.63999	
31500	1.64001	
31600	1.63571	
31700	1.63148	
31700	1.63145	
31800	1.62715	
31800	1.62718	
31900	1.62293	
32000	1.61867	
32100	1.61455	
32100	1.61449	
32200	1.61029	
32300	1.60616	
32300	1.60615	
32400	1.60208	
32500	1.59787	
32500	1.59791	
32600	1.59382	
32700	1.58975	
32700	1.58974	
32800	1.58565	
32900	1.58154	
32900	1.58155	
32900	1.58156	
33100	1.57354	
33100	1.57358	
33200	1.5696	
33300	1.56564	
33300	1.56558	
33400	1.5617	
33500	1.55771	
33500	1.55778	
33600	1.55389	
33700	1.54998	
33800	1.54611	
33800	1.54615	
33900	1.54228	
34000	1.53843	
34000	1.53849	
34100	1.53463	
34200	1.53086	
34200	1.5308	
34300	1.52705	
34400	1.52329	
34400	1.52322	
34500	1.5196	
34500	1.51956	
34600	1.5158	
34700	1.51211	
34700	1.51217	
34800	1.5085	
34900	1.50489	
34900	1.50492	
35000	1.5012	
35100	1.4976	
35100	1.49759	
35200	1.49396	
35300	1.49036	
35400	1.48677	
35400	1.4868	
35500	1.48318	
35600	1.47967	
35600	1.47969	
35700	1.47594	
35800	1.47263	
35800	1.47262	
35900	1.46914	
35900	1.46916	
36000	1.46562	
36100	1.46218	
36100	1.46222	
36200	1.4588	
36300	1.45538	
36300	1.45534	
36400	1.45192	
36500	1.44847	
36500	1.44848	
36600	1.44513	
36700	1.44176	
36700	1.44178	
36800	1.43846	
36900	1.43512	
36900	1.43508	
37000	1.43184	
37100	1.4285	
37100	1.42849	
37200	1.42522	
37200	1.42522	
37300	1.42196	
37400	1.41864	
37400	1.41864	
37500	1.4154	
37600	1.41216	
37600	1.41214	
37700	1.40899	
37800	1.40581	
37800	1.4057	
37900	1.40255	
38000	1.39943	
38000	1.39939	
38100	1.3962	
38200	1.39305	
38200	1.39302	
38300	1.38991	
38400	1.38677	
38399	1.38682	
38500	1.38371	
38500	1.38369	
38600	1.3806	
38700	1.37758	
38800	1.37453	
38800	1.37449	
38900	1.37145	
39000	1.36847	
39000	1.36847	
39100	1.36543	
39199	1.36235	
39199	1.36237	
39300	1.35938	
39400	1.35644	
39400	1.35648	
39500	1.35346	
39600	1.35047	
39600	1.35045	
39600	1.35055	
39800	1.3446	
39800	1.3446	
39899	1.34174	
39999	1.33889	
39999	1.3389	
40100	1.33595	
40200	1.33306	
40200	1.33305	
40300	1.33017	
40400	1.32732	
40400	1.32735	
40500	1.32447	
40600	1.32167	
40600	1.3217	
40699	1.31889	
40799	1.31603	
40799	1.31614	
40799	1.31612	
41000	1.31054	
41000	1.31049	
41100	1.30769	
41200	1.3049	
41200	1.30495	
41300	1.30221	
41300	1.30225	
41400	1.29944	
41499	1.29677	
41599	1.29406	
41599	1.29408	
41700	1.29132	
41800	1.28859	
41800	1.28866	
41900	1.28598	
42000	1.28329	
42000	1.28335	
42100	1.28066	
42200	1.27807	
42200	1.2781	
42299	1.27539	
42399	1.27276	
42399	1.27284	
42500	1.27017	
42500	1.27014	
42500	1.27015	
42700	1.26497	
42700	1.26499	
42800	1.26241	
42900	1.25985	
42900	1.25982	
42999	1.25731	
42999	1.25732	
43099	1.25478	
43199	1.25225	
43199	1.25225	
43300	1.24967	
43300	1.24969	
43400	1.2472	
43400	1.24725	
43500	1.24473	
43600	1.24222	
43700	1.23973	
43700	1.23973	
43799	1.23721	
43899	1.23473	
43899	1.23475	
43999	1.23235	
44100	1.22988	
44100	1.22987	
44200	1.22743	
44300	1.22503	
44300	1.225	
44400	1.22255	
44400	1.2226	
44500	1.22022	
44599	1.21781	
44599	1.2178	
44699	1.2154	
44799	1.21305	
44799	1.21306	
44899	1.21069	
45000	1.20828	
45000	1.20831	
45100	1.20599	
45100	1.20593	
45200	1.20365	
45300	1.20129	
45300	1.20125	
45399	1.19899	
45499	1.19668	
45499	1.19665	
45599	1.19436	
45699	1.19206	
45700	1.19204	
45800	1.18979	
45900	1.18747	
45900	1.18752	
46000	1.18522	
46099	1.18297	
46099	1.18296	
46199	1.18074	
46199	1.18077	
46299	1.17849	
46399	1.17627	
46399	1.17628	
46499	1.1741	
46600	1.17187	
46600	1.17185	
46700	1.16965	
46800	1.16743	
46800	1.16746	
46899	1.16536	
46999	1.16316	
46999	1.16313	
47099	1.16097	
47199	1.15875	
47199	1.15879	
47299	1.15665	
47299	1.15669	
47400	1.15454	
47500	1.15239	
47500	1.15241	
47600	1.15028	
47699	1.14807	
47699	1.14811	
47799	1.14598	
47799	1.14603	
47899	1.1439	
47999	1.14183	
47999	1.14184	
48099	1.13975	
48200	1.13766	
48200	1.13762	
48300	1.1356	
48400	1.1335	
48400	1.13353	
48499	1.13147	
48599	1.12946	
48599	1.12944	
48699	1.12733	
48799	1.12538	
48799	1.12539	
48899	1.12339	
48899	1.12342	
49000	1.12139	
49100	1.11933	
49100	1.11932	
49199	1.11739	
49299	1.11526	
49299	1.11532	
49399	1.11334	
49499	1.11138	
49499	1.1114	
49599	1.10944	
49699	1.10745	
49699	1.10744	
49800	1.10549	
49900	1.1036	
